Wavelength Extinction
336 59416.433
337 58681.277
338 57945.840
339 57208.340
340 56466.997
341 55720.031
342 54965.660
343 54202.111
344 53429.494
345 52652.326
346 51875.752
347 51104.917
348 50344.966
349 49601.042
350 48878.292
351 48181.859
352 47516.877
353 46886.555
354 46290.066
355 45726.073
356 45193.241
357 44690.233
358 44215.712
359 43768.343
360 43346.790
361 42949.715
362 42575.783
363 42223.651
364 41891.330
365 41575.634
366 41273.252
367 40980.869
368 40695.175
369 40412.855
370 40130.597
371 39845.087
372 39553.033
373 39252.470
374 38943.653
375 38627.044
376 38303.104
377 37972.297
378 37635.085
379 37291.929
380 36943.292
381 36589.636
382 36231.424
383 35869.118
384 35503.185
385 35134.371
386 34763.824
387 34392.723
388 34022.248
389 33653.577
390 33287.891
391 32926.368
392 32570.188
393 32220.531
394 31878.576
395 31545.502
396 31222.488
397 30910.715
398 30611.338
399 30324.711
400 30050.193
401 29787.080
402 29534.671
403 29292.262
404 29059.150
405 28834.632
406 28618.006
407 28408.569
408 28205.617
409 28008.449
410 27816.360
411 27628.649
412 27444.612
413 27263.546
414 27084.761
415 26907.848
416 26732.695
417 26559.203
418 26387.271
419 26216.801
420 26047.692
421 25879.847
422 25713.164
423 25547.544
424 25382.889
425 25219.098
426 25056.072
427 24893.712
428 24731.918
429 24570.591
430 24409.650
431 24249.351
432 24090.243
433 23932.885
434 23777.834
435 23625.651
436 23476.892
437 23332.116
438 23191.883
439 23056.749
440 22927.274
441 22804.016
442 22687.534
443 22578.385
444 22477.129
445 22384.324
446 22300.527
447 22226.246
448 22161.280
449 22104.923
450 22056.458
451 22015.168
452 21980.336
453 21951.246
454 21927.179
455 21907.420
456 21891.251
457 21877.955
458 21866.815
459 21857.115
460 21848.136
461 21839.164
462 21829.479
463 21818.413
464 21805.791
465 21791.731
466 21776.358
467 21759.797
468 21742.169
469 21723.600
470 21704.214
471 21684.133
472 21663.482
473 21642.385
474 21620.965
475 21599.347
476 21577.654
477 21556.010
478 21534.539
479 21513.365
480 21492.611
481 21472.401
482 21452.859
483 21434.110
484 21416.276
485 21399.482
486 21383.851
487 21369.598
488 21357.602
489 21349.046
490 21345.114
491 21346.988
492 21355.852
493 21372.889
494 21399.283
495 21436.216
496 21484.873
497 21546.436
498 21622.089
499 21713.014
500 21820.397
501 21945.419
502 22089.264
503 22253.115
504 22438.156
505 22645.570
506 22876.540
507 23132.250
508 23413.227
509 23716.319
510 24037.089
511 24371.097
512 24713.906
513 25061.076
514 25408.169
515 25750.747
516 26084.370
517 26404.600
518 26706.999
519 26988.368
520 27251.554
521 27501.237
522 27742.102
523 27978.830
524 28216.103
525 28458.605
526 28711.019
527 28978.026
528 29264.309
529 29574.551
530 29913.435
531 30285.643
532 30694.529
533 31137.977
534 31612.458
535 32114.445
536 32640.411
537 33186.828
538 33750.169
539 34326.906
540 34913.512
541 35506.459
542 36102.221
543 36698.029
544 37293.836
545 37890.202
546 38487.688
547 39086.856
548 39688.265
549 40292.476
550 40900.052
551 41511.551
552 42127.535
553 42748.566
554 43375.203
555 44008.007
556 44647.539
557 45294.361
558 45949.032
559 46611.942
560 47282.977
561 47961.935
562 48648.610
563 49342.798
564 50044.296
565 50752.899
566 51468.403
567 52190.604
568 52919.298
569 53654.280
570 54395.346
571 55142.293
572 55894.915
573 56653.010
574 57416.372
575 58184.798
576 58958.083
577 59736.024
578 60518.416
579 61305.054
580 62095.736
581 62890.256
582 63688.410
583 64489.995
584 65294.806
585 66102.640
586 66913.373
587 67727.050
588 68543.740
589 69363.509
590 70186.424
591 71012.553
592 71841.963
593 72674.721
594 73510.893
595 74350.549
596 75193.753
597 76040.575
598 76891.080
599 77745.343
600 78604.006
601 79468.735
602 80341.298
603 81223.465
604 82117.006
605 83023.691
606 83945.289
607 84883.569
608 85840.302
609 86817.256
610 87816.203
611 88838.910
612 89887.123
613 90961.124
614 92058.939
615 93178.402
616 94317.349
617 95473.613
618 96645.031
619 97829.435
620 99024.662
621 100228.527
622 101438.025
623 102649.011
624 103857.253
625 105058.519
626 106248.579
627 107423.202
628 108578.155
629 109709.208
630 110812.130
631 111882.689
632 112916.654
633 113909.795
634 114857.879
635 115756.676
636 116601.955
637 117389.483
638 118115.031
639 118774.471
640 119366.736
641 119894.235
642 120359.567
643 120765.330
644 121114.122
645 121408.542
646 121651.187
647 121844.657
648 121991.549
649 122094.538
650 122158.090
651 122188.496
652 122192.130
653 122175.363
654 122144.567
655 122106.117
656 122066.383
657 122031.603
658 122005.276
659 121988.353
660 121981.685
661 121986.128
662 122002.535
663 122031.758
664 122074.760
665 122134.397
666 122215.163
667 122321.603
668 122458.262
669 122629.685
670 122840.418
671 123095.257
672 123402.949
673 123775.383
674 124224.535
675 124762.383
676 125400.901
677 126152.066
678 127027.855
679 128038.102
680 129163.189
681 130362.080
682 131593.258
683 132815.205
684 133986.402
685 135065.331
686 136015.668
687 136864.898
688 137683.377
689 138542.253
690 139512.677
691 140654.396
692 141897.529
693 143089.931
694 144088.483
695 144862.323
696 145449.428
697 145888.770
698 146219.321
699 146480.053
700 146705.773
701 146889.918
702 147002.254
703 147012.267
704 146891.454
705 146630.154
706 146229.003
707 145689.468
708 145019.549
709 144230.696
710 143334.390
711 142342.109
712 141263.762
713 140096.116
714 138829.400
715 137455.771
716 135983.200
717 134427.250
718 132803.531
719 131127.655
720 129415.232
721 127681.876
722 125943.195
723 124207.703
724 122432.984
725 120554.398
726 118507.207
727 116226.678
728 113665.650
729 110894.780
730 108033.141
731 105199.956
732 102514.448
733 100095.838
734 98028.837
735 96184.615
736 94352.778
737 92322.767
738 89884.024
739 86825.989
740 83034.203
741 78943.543
742 75183.763
743 72281.660
744 70196.867
745 68695.182
746 67542.234
747 66503.653
748 65345.067
749 63832.107
750 61784.502
751 59293.515
752 56535.408
753 53686.477
754 50923.013
755 48390.501
756 46089.452
757 43977.770
758 42013.358
759 40154.115
760 38357.944
761 36590.232
762 34848.993
763 33141.122
764 31473.515
765 29853.066
766 28286.670
767 26781.224
768 25343.621
769 23980.757
770 22699.528
771 21504.641
772 20392.416
773 19357.166
774 18393.203
775 17494.840
776 16656.387
777 15872.157
778 15136.463
779 14443.617
780 13787.930
781 13163.715
782 12565.284
783 11986.949
784 11424.354
785 10877.473
786 10347.152
787 9834.240
788 9339.587
789 8864.040
790 8408.449
791 7973.661
792 7560.296
793 7168.293
794 6797.471
795 6447.648
796 6118.641
797 5810.269
798 5522.347
799 5254.696
800 5007.131
801 4779.472
802 4571.535
803 4383.138
804 4214.100
805 4064.237
806 3933.368
807 3821.310
808 3727.880
809 3652.898
810 3596.179
811 3557.540
812 3535.904
813 3528.155
814 3530.889
815 3540.703
816 3554.193
817 3567.956
818 3578.587
819 3582.684
820 3576.843
821 3557.674
822 3523.839
823 3478.189
824 3424.084
825 3364.885
826 3303.954
827 3244.652
828 3190.340
829 3144.379
830 3110.111
831 3089.013
832 3079.136
833 3078.161
834 3083.770
835 3093.645
836 3105.467
837 3116.919
838 3125.684
839 3129.441
840 3125.874
841 3112.684
842 3088.847
843 3055.410
844 3013.604
845 2964.664
846 2909.821
847 2850.310
848 2787.363
849 2722.213
850 2656.093
851 2590.236
852 2525.876
853 2464.246
854 2406.577
855 2354.105
856 2308.061
857 2269.679
858 2240.191
859 2220.796
860 2211.295
861 2209.642
862 2213.667
863 2221.197
864 2230.063
865 2238.092
866 2243.114
867 2242.958
868 2235.452
869 2218.473
870 2191.374
871 2155.253
872 2111.310
873 2060.744
874 2004.753
875 1944.536
876 1881.293
877 1816.221
878 1750.520
